# Mie Scattering                # Version 2-6-2 (02:02:41 10/01/19)
# Oregon Medical Laser Center   # http://omlc.org
# by Scott Prahl                # scott.prahl@oit.edu
#
# radius     	  0.07000	 [microns]     (sphere radius)
# n_medium   	  1.00000	 [---]         (refractive index of medium)
# n_real     	  1.40000	 [---]         (refractive index of sphere)
# n_imag     	 -0.00300	 [---]         (absorption of sphere)
# lambda_vac 	  0.76500	 [microns]     (wavelength in vacuum)
# density    	  0.10000	 [#/micron^3]  (spheres per cubic micron)
#
# lambda     	  0.76500	 [microns]     (wavelength in medium)
# X          	  0.57493	 [---]         (size parameter)
# g          	 0.061775	 [---]         (average cosine of phase function)
# Qsca       	 0.016856	 [---]         (scattering efficiency)
# Qext       	 0.021065	 [---]         (extinction efficiency)
# Qback      	 0.021667	 [---]         (backscattering efficiency)
# Csca       	0.00025948	 [micron^2]    (scattering cross section)
# Cext       	0.00032428	 [micron^2]    (extinction cross section)
# Cback      	0.00033354	 [micron^2]    (backscattering cross section)
# mu_s       	 0.025948	 [1/mm]        (scattering coefficient)
# mu_s'      	 0.024345	 [1/mm]        (reduced scattering coefficient)
# mu_t       	 0.032428	 [1/mm]        (total attenuation coefficient)
#
#   The second column is normalized so that the integral of it over 
#   4*pi steradians will be unity.  The average of the 3rd & 4th
#   columns is the second.  The next three columns are normalized
#   to the value at 0 degrees. 
#
#       natural      = (|S1|^2+|S2|^2)/2*1/(pi X^2 Qsca)
#       perpen       = |S1|^2/(pi X^2 Qsca)
#       parallel     = |S2|^2/(pi X^2 Qsca)
#       polarization = (|S1|^2-|S2|^2)/(|S1|^2+|S2|^2)
#       S33          =  Real(S2 * S1^*)
#       S34          = -Imag(S2 * S1^*)
#
##theta	 natural 	 perpen 	 parallel	 natural 	 perpen 	 parallel	 polarization 	   S33   	   S34
-176.400	 0.10211	 0.10232	 0.10191	 0.74169	 0.74319	 0.74018	 0.00203	-1.00000	-0.00000
-172.800	 0.10159	 0.10241	 0.10076	 0.73786	 0.74386	 0.73187	 0.00813	-0.99997	-0.00000
-169.200	 0.10072	 0.10256	 0.09887	 0.73155	 0.74497	 0.71814	 0.01834	-0.99983	-0.00001
-165.600	 0.09952	 0.10278	 0.09626	 0.72285	 0.74653	 0.69918	 0.03275	-0.99946	-0.00002
-162.000	 0.09801	 0.10305	 0.09297	 0.71189	 0.74852	 0.67525	 0.05146	-0.99867	-0.00003
-158.400	 0.09621	 0.10339	 0.08903	 0.69882	 0.75095	 0.64669	 0.07460	-0.99721	-0.00004
-154.800	 0.09415	 0.10378	 0.08452	 0.68385	 0.75380	 0.61390	 0.10229	-0.99475	-0.00005
-151.200	 0.09186	 0.10423	 0.07948	 0.66720	 0.75708	 0.57733	 0.13470	-0.99089	-0.00007
-147.600	 0.08937	 0.10474	 0.07400	 0.64913	 0.76076	 0.53751	 0.17196	-0.98510	-0.00009
-144.000	 0.08673	 0.10530	 0.06815	 0.62993	 0.76484	 0.49501	 0.21418	-0.97679	-0.00011
-140.400	 0.08397	 0.10592	 0.06202	 0.60989	 0.76932	 0.45045	 0.26141	-0.96523	-0.00014
-136.800	 0.08114	 0.10658	 0.05569	 0.58934	 0.77417	 0.40451	 0.31362	-0.94955	-0.00016
-133.200	 0.07829	 0.10730	 0.04927	 0.56863	 0.77939	 0.35787	 0.37065	-0.92877	-0.00019
-129.600	 0.07546	 0.10807	 0.04285	 0.54810	 0.78495	 0.31125	 0.43213	-0.90181	-0.00022
-126.000	 0.07271	 0.10888	 0.03654	 0.52812	 0.79085	 0.26539	 0.49748	-0.86747	-0.00026
-122.400	 0.07008	 0.10974	 0.03043	 0.50905	 0.79707	 0.22103	 0.56580	-0.82454	-0.00029
-118.800	 0.06763	 0.11063	 0.02463	 0.49123	 0.80358	 0.17889	 0.63583	-0.77183	-0.00032
-115.200	 0.06540	 0.11157	 0.01924	 0.47504	 0.81036	 0.13971	 0.70589	-0.70832	-0.00036
-111.600	 0.06344	 0.11254	 0.01434	 0.46079	 0.81740	 0.10418	 0.77391	-0.63330	-0.00039
-108.000	 0.06179	 0.11354	 0.01004	 0.44881	 0.82467	 0.07295	 0.83747	-0.54649	-0.00042
-104.400	 0.06049	 0.11457	 0.00642	 0.43938	 0.83214	 0.04662	 0.89390	-0.44826	-0.00044
-100.800	 0.05958	 0.11562	 0.00354	 0.43277	 0.83979	 0.02574	 0.94053	-0.33972	-0.00046
-97.200	 0.05909	 0.11669	 0.00148	 0.42919	 0.84760	 0.01079	 0.97487	-0.22277	-0.00047
-93.600	 0.05904	 0.11779	 0.00030	 0.42884	 0.85553	 0.00215	 0.99498	-0.10004	-0.00048
-90.000	 0.05945	 0.11889	 0.00002	 0.43184	 0.86355	 0.00014	 0.99968	 0.02532	-0.00048
-86.400	 0.06034	 0.12000	 0.00068	 0.43829	 0.87163	 0.00495	 0.98870	 0.14989	-0.00047
-82.800	 0.06171	 0.12112	 0.00230	 0.44822	 0.87974	 0.01669	 0.96277	 0.27033	-0.00045
-79.200	 0.06355	 0.12224	 0.00487	 0.46160	 0.88786	 0.03534	 0.92344	 0.38373	-0.00043
-75.600	 0.06586	 0.12335	 0.00837	 0.47835	 0.89593	 0.06077	 0.87295	 0.48780	-0.00040
-72.000	 0.06861	 0.12445	 0.01277	 0.49835	 0.90394	 0.09275	 0.81388	 0.58103	-0.00037
-68.400	 0.07178	 0.12554	 0.01802	 0.52138	 0.91184	 0.13091	 0.74891	 0.66267	-0.00034
-64.800	 0.07534	 0.12661	 0.02406	 0.54720	 0.91961	 0.17478	 0.68058	 0.73267	-0.00031
-61.200	 0.07923	 0.12765	 0.03081	 0.57549	 0.92720	 0.22379	 0.61114	 0.79152	-0.00027
-57.600	 0.08342	 0.12867	 0.03817	 0.60591	 0.93458	 0.27724	 0.54244	 0.84009	-0.00024
-54.000	 0.08784	 0.12965	 0.04603	 0.63805	 0.94172	 0.33437	 0.47595	 0.87947	-0.00021
-50.400	 0.09244	 0.13060	 0.05429	 0.67145	 0.94859	 0.39432	 0.41273	 0.91085	-0.00018
-46.800	 0.09715	 0.13150	 0.06280	 0.70566	 0.95514	 0.45617	 0.35355	 0.93542	-0.00016
-43.200	 0.10190	 0.13236	 0.07145	 0.74016	 0.96135	 0.51896	 0.29885	 0.95430	-0.00013
-39.600	 0.10662	 0.13316	 0.08008	 0.77443	 0.96719	 0.58166	 0.24891	 0.96853	-0.00011
-36.000	 0.11124	 0.13391	 0.08856	 0.80795	 0.97264	 0.64327	 0.20383	 0.97901	-0.00009
-32.400	 0.11568	 0.13460	 0.09675	 0.84020	 0.97765	 0.70276	 0.16358	 0.98653	-0.00007
-28.800	 0.11987	 0.13523	 0.10451	 0.87067	 0.98220	 0.75913	 0.12810	 0.99176	-0.00005
-25.200	 0.12375	 0.13579	 0.11171	 0.89886	 0.98628	 0.81143	 0.09726	 0.99526	-0.00004
-21.600	 0.12726	 0.13628	 0.11823	 0.92431	 0.98986	 0.85876	 0.07092	 0.99748	-0.00003
-18.000	 0.13033	 0.13670	 0.12395	 0.94662	 0.99293	 0.90031	 0.04892	 0.99880	-0.00002
-14.400	 0.13291	 0.13705	 0.12877	 0.96540	 0.99545	 0.93534	 0.03113	 0.99952	-0.00001
-10.800	 0.13497	 0.13732	 0.13262	 0.98034	 0.99744	 0.96325	 0.01744	 0.99985	-0.00001
-7.200	 0.13646	 0.13752	 0.13541	 0.99120	 0.99886	 0.98355	 0.00772	 0.99997	-0.00000
-3.600	 0.13737	 0.13764	 0.13711	 0.99779	 0.99971	 0.99587	 0.00193	 1.00000	-0.00000
 0.000	 0.13768	 0.13768	 0.13768	 1.00000	 1.00000	 1.00000	 0.00000	 1.00000	-0.00000
 3.600	 0.13737	 0.13764	 0.13711	 0.99779	 0.99971	 0.99587	 0.00193	 1.00000	-0.00000
 7.200	 0.13646	 0.13752	 0.13541	 0.99120	 0.99886	 0.98355	 0.00772	 0.99997	-0.00000
10.800	 0.13497	 0.13732	 0.13262	 0.98034	 0.99744	 0.96325	 0.01744	 0.99985	-0.00001
14.400	 0.13291	 0.13705	 0.12877	 0.96540	 0.99545	 0.93534	 0.03113	 0.99952	-0.00001
18.000	 0.13033	 0.13670	 0.12395	 0.94662	 0.99293	 0.90031	 0.04892	 0.99880	-0.00002
21.600	 0.12726	 0.13628	 0.11823	 0.92431	 0.98986	 0.85876	 0.07092	 0.99748	-0.00003
25.200	 0.12375	 0.13579	 0.11171	 0.89886	 0.98628	 0.81143	 0.09726	 0.99526	-0.00004
28.800	 0.11987	 0.13523	 0.10451	 0.87067	 0.98220	 0.75913	 0.12810	 0.99176	-0.00005
32.400	 0.11568	 0.13460	 0.09675	 0.84020	 0.97765	 0.70276	 0.16358	 0.98653	-0.00007
36.000	 0.11124	 0.13391	 0.08856	 0.80795	 0.97264	 0.64327	 0.20383	 0.97901	-0.00009
39.600	 0.10662	 0.13316	 0.08008	 0.77443	 0.96719	 0.58166	 0.24891	 0.96853	-0.00011
43.200	 0.10190	 0.13236	 0.07145	 0.74016	 0.96135	 0.51896	 0.29885	 0.95430	-0.00013
46.800	 0.09715	 0.13150	 0.06280	 0.70566	 0.95514	 0.45617	 0.35355	 0.93542	-0.00016
50.400	 0.09244	 0.13060	 0.05429	 0.67145	 0.94859	 0.39432	 0.41273	 0.91085	-0.00018
54.000	 0.08784	 0.12965	 0.04603	 0.63805	 0.94172	 0.33437	 0.47595	 0.87947	-0.00021
57.600	 0.08342	 0.12867	 0.03817	 0.60591	 0.93458	 0.27724	 0.54244	 0.84009	-0.00024
61.200	 0.07923	 0.12765	 0.03081	 0.57549	 0.92720	 0.22379	 0.61114	 0.79152	-0.00027
64.800	 0.07534	 0.12661	 0.02406	 0.54720	 0.91961	 0.17478	 0.68058	 0.73267	-0.00031
68.400	 0.07178	 0.12554	 0.01802	 0.52138	 0.91184	 0.13091	 0.74891	 0.66267	-0.00034
72.000	 0.06861	 0.12445	 0.01277	 0.49835	 0.90394	 0.09275	 0.81388	 0.58103	-0.00037
75.600	 0.06586	 0.12335	 0.00837	 0.47835	 0.89593	 0.06077	 0.87295	 0.48780	-0.00040
79.200	 0.06355	 0.12224	 0.00487	 0.46160	 0.88786	 0.03534	 0.92344	 0.38373	-0.00043
82.800	 0.06171	 0.12112	 0.00230	 0.44822	 0.87974	 0.01669	 0.96277	 0.27033	-0.00045
86.400	 0.06034	 0.12000	 0.00068	 0.43829	 0.87163	 0.00495	 0.98870	 0.14989	-0.00047
90.000	 0.05945	 0.11889	 0.00002	 0.43184	 0.86355	 0.00014	 0.99968	 0.02532	-0.00048
93.600	 0.05904	 0.11779	 0.00030	 0.42884	 0.85553	 0.00215	 0.99498	-0.10004	-0.00048
97.200	 0.05909	 0.11669	 0.00148	 0.42919	 0.84760	 0.01079	 0.97487	-0.22277	-0.00047
100.800	 0.05958	 0.11562	 0.00354	 0.43277	 0.83979	 0.02574	 0.94053	-0.33972	-0.00046
104.400	 0.06049	 0.11457	 0.00642	 0.43938	 0.83214	 0.04662	 0.89390	-0.44826	-0.00044
108.000	 0.06179	 0.11354	 0.01004	 0.44881	 0.82467	 0.07295	 0.83747	-0.54649	-0.00042
111.600	 0.06344	 0.11254	 0.01434	 0.46079	 0.81740	 0.10418	 0.77391	-0.63330	-0.00039
115.200	 0.06540	 0.11157	 0.01924	 0.47504	 0.81036	 0.13971	 0.70589	-0.70832	-0.00036
118.800	 0.06763	 0.11063	 0.02463	 0.49123	 0.80358	 0.17889	 0.63583	-0.77183	-0.00032
122.400	 0.07008	 0.10974	 0.03043	 0.50905	 0.79707	 0.22103	 0.56580	-0.82454	-0.00029
126.000	 0.07271	 0.10888	 0.03654	 0.52812	 0.79085	 0.26539	 0.49748	-0.86747	-0.00026
129.600	 0.07546	 0.10807	 0.04285	 0.54810	 0.78495	 0.31125	 0.43213	-0.90181	-0.00022
133.200	 0.07829	 0.10730	 0.04927	 0.56863	 0.77939	 0.35787	 0.37065	-0.92877	-0.00019
136.800	 0.08114	 0.10658	 0.05569	 0.58934	 0.77417	 0.40451	 0.31362	-0.94955	-0.00016
140.400	 0.08397	 0.10592	 0.06202	 0.60989	 0.76932	 0.45045	 0.26141	-0.96523	-0.00014
144.000	 0.08673	 0.10530	 0.06815	 0.62993	 0.76484	 0.49501	 0.21418	-0.97679	-0.00011
147.600	 0.08937	 0.10474	 0.07400	 0.64913	 0.76076	 0.53751	 0.17196	-0.98510	-0.00009
151.200	 0.09186	 0.10423	 0.07948	 0.66720	 0.75708	 0.57733	 0.13470	-0.99089	-0.00007
154.800	 0.09415	 0.10378	 0.08452	 0.68385	 0.75380	 0.61390	 0.10229	-0.99475	-0.00005
158.400	 0.09621	 0.10339	 0.08903	 0.69882	 0.75095	 0.64669	 0.07460	-0.99721	-0.00004
162.000	 0.09801	 0.10305	 0.09297	 0.71189	 0.74852	 0.67525	 0.05146	-0.99867	-0.00003
165.600	 0.09952	 0.10278	 0.09626	 0.72285	 0.74653	 0.69918	 0.03275	-0.99946	-0.00002
169.200	 0.10072	 0.10256	 0.09887	 0.73155	 0.74497	 0.71814	 0.01834	-0.99983	-0.00001
172.800	 0.10159	 0.10241	 0.10076	 0.73786	 0.74386	 0.73187	 0.00813	-0.99997	-0.00000
176.400	 0.10211	 0.10232	 0.10191	 0.74169	 0.74319	 0.74018	 0.00203	-1.00000	-0.00000
180.000	 0.10229	 0.10229	 0.10229	 0.74297	 0.74297	 0.74297	 0.00000	-1.00000	-0.00000
